<?xml version="1.0" standalone="yes"?>
<spectrum id="sp04" type="UV/VIS"
   xmlns="http://www.xml-cml.org/schema"
   xsi:schemaLocation="http://www.xml-cml.org/schema ../../schema.xsd"
   xmlns:xsi="http://www.w3.org/2001/XMLSchema-instance"
>
    <metadataList>
        <metadata name="dc:origin">INSTITUTE OF ENERGY PROBLEMS OF CHEMICAL PHYSICS, RAS</metadata>
        <metadata name="dc:owner">INEP CP RAS, NIST OSRD</metadata>
    </metadataList>
    <sample>
        <molecule>
            <name convention="cas:regno">109-99-9</name>
        </molecule>
    </sample>
    <spectrumData>
    <xaxis>
        <array dataType="xsd:double" units="unit:nm">
        199.1212 199.1212 199.1164 199.1164 199.1107 199.1107 199.1030 199.0977 199.0964 199.0898
        199.0895 199.0893 199.0891 199.0858 199.0855 199.0853 199.0851 199.0680 199.0665 198.8244
        198.8009 198.7893 198.6686 198.6686 198.6383 198.6079 198.5775 198.5775 198.5734 198.5682
        198.5612 198.5612 198.5086 198.3795 198.2234 198.0650 198.0160 197.9815 197.9798 197.9307
        197.7450 197.6996 197.6814 197.6768 197.6721 197.5620 197.5489 197.5115 197.5115 197.4962
        197.4584 197.4496 197.4416 197.4416 197.3958 197.2085 197.1864 197.1478 196.9264 196.8891
        196.8776 196.8642 196.6951 196.6504 196.6483 196.6300 196.3837 196.3827 196.3715 196.2983
        196.2669 196.2646 196.2427 196.2318 196.2189 196.1948 196.1948 196.1942 196.1904 196.1549
        196.0903 196.0689 196.0579 196.0466 196.0238 196.0233 196.0228 196.0224 196.0224 196.0220
        196.0125 196.0011 195.9888 195.9877 195.9515 195.9144 195.8027 195.7443 195.6989 195.6894
        195.6780 195.6656 195.6272 195.6173 195.6095 195.6095 195.6056 195.5929 195.5290 195.4507
        195.4162 195.3820 195.3115 195.2401 195.2065 195.1937 195.1888 195.1888 195.1809 195.1681
        195.1576 195.1264 195.0952 195.0952 195.0728 195.0623 195.0486 195.0234 195.0035 194.9902
        194.9448 194.9314 194.8861 194.8726 194.8525 194.8397 194.8346 194.8268 194.8139 194.8139
        194.7552 194.7167 194.6858 194.6858 194.5864 194.5243 194.4464 194.4464 194.4137 194.4092
        194.4037 194.3963 194.3279 194.2690 194.2311 194.2311 194.1704 194.1097 194.0492 194.0492
        193.9125 193.7814 193.6788 193.6788 193.6586 193.6455 193.6383 193.6171 193.6112 193.5941
        193.5751 193.5751 193.5565 193.5559 193.5553 193.5548 193.4188 193.3674 193.3650 193.3375
        193.3086 193.3000 193.2995 193.2990 193.2986 193.2798 193.2510 193.2510 193.2474 193.2430
        193.2381 193.2367 193.2334 193.2279 193.2205 193.2205 193.1975 193.1522 193.1462 193.1070
        193.0720 193.0617 193.0617 193.0528 193.0420 193.0304 192.9978 192.9978 192.9574 192.9139
        192.8977 192.8647 192.8307 192.8301 192.7970 192.7963 192.7957 192.7950 192.7950 192.7945
        192.6492 192.5792 192.5425 192.5241 192.5241 192.5209 192.4974 192.4743 192.4729 192.4438
        192.4068 192.4065 192.4065 192.3980 192.3874 192.3758 192.3431 192.3427 192.3422 192.3418
        192.3418 192.3330 192.2967 192.2596 192.2507 192.2029 192.1862 192.1862 192.1385 192.0899
        192.0395 192.0395 192.0074 191.9946 191.9858 191.9623 191.9498 191.9380 191.9050 191.9050
        191.8129 191.7387 191.6574 191.6185 191.6126 191.5864 191.5777 191.5671 191.5670 191.5557
        191.5195 191.5195 191.4217 191.3059 191.2282 191.1958 191.1949 191.1624 191.1623 191.1521
        191.1401 191.1273 191.1273 191.1270 191.0737 191.0187 190.9629 190.9629 190.9302 190.9144
        190.9014 190.8727 190.8651 190.8447 190.8440 190.8358 190.8251 190.8140 190.8140 190.8135
        190.7080 190.6003 190.5216 190.4919 190.4894 190.4598 190.4563 190.4470 190.4412 190.4342
        190.4215 190.4215 190.3881 190.3877 190.3872 190.3868 190.3860 190.3292 190.3107 190.3104
        190.3101 190.3098 190.2748 190.2715 190.2398 190.2307 190.2194 190.1972 190.1866 190.1742
        190.1425 190.1425 190.0412 189.9046 189.7854 189.7654 189.7559 189.7445 189.7241 189.7233
        189.7226 189.7218 189.7218 189.7054 189.6017 189.5381 189.4780 189.4602 189.4602 189.4570
        189.4343 189.4106 189.2668 189.1305 189.0452 189.0452 189.0260 189.0174 189.0070 188.9957
        188.9638 188.9635 188.9632 188.9629 188.9614 188.8633 188.8521 188.8082 188.7531 188.6990
        188.6986 188.6983 188.6980 188.6980 188.6816 188.6816 188.6668 188.6666 188.6664 188.6662
        188.6142 188.5460 188.4973 188.4765 188.4761 188.4761 188.4540 188.4306 188.4214 188.3659
        188.3091 188.3088 188.3088 188.2884 188.2660 188.2427 188.2116 188.1800 188.1476 188.1135
        188.0281 187.8859 187.8458 187.8029 187.7815 187.7809 187.7703 187.7601 187.7591 187.7479
        187.7173 187.7173 187.6880 187.6579 187.6262 187.5954 187.5944 187.5400 187.4856 187.4313
        187.3584 187.2482 187.1707 187.1707 187.1394 187.1389 187.1384 187.1378 187.1242 187.1033
        187.0842 187.0768 187.0643 187.0426 187.0278 187.0278 186.9671 186.9048 186.8417 186.8417
        186.6281 186.4786 186.3124 186.3124 186.2816 186.2500 186.2167 186.2167 186.1491 186.1084
        186.0598 186.0297 185.9986 185.9667 185.9331 185.9331 185.8911 185.8491 185.8071 185.8071
        185.7770 185.7460 185.7142 185.7134 185.6659 185.6127 185.5517 185.5517 185.5060 185.4594
        185.4112 185.4112 185.2922 185.1870 185.1073 185.1073 185.0375 184.9965 184.9491 184.9491
        184.8922 184.8345 184.7752 184.7752 184.6749 184.6234 184.5764 184.5764 184.5345 184.4925
        184.4506 184.4506 184.1962 184.0557 183.8944 183.8944 183.7707 183.5478 183.3678 183.3678
        183.2839 183.1985 183.1124 183.1124 182.9905 182.9000 182.7297 182.7297 182.6207 182.5274
        182.4729 182.4729 182.4395 182.3726 182.3587 182.2779 182.2708 182.1972 182.1683 182.1683
        182.0670 181.9177 181.7480 181.7189 181.6901 181.6895 181.6593 181.6276 181.6183 181.5430
        181.3997 181.3997 181.3343 181.2689 181.2036 181.2036 181.1269 181.0734 180.9974 180.9653
        180.8603 180.7810 180.7096 180.7096 180.6447 180.6190 180.5938 180.5798 180.5686 180.5434
        180.5150 180.5150 180.4554 180.4508 180.4285 180.4281 180.4277 180.4273 180.4016 180.3918
        180.3821 180.3723 180.3446 180.3260 180.3169 180.3057 180.2846 180.2414 180.0083 179.8316
        179.6953 179.6187 179.5900 179.5842 179.5833 179.5767 179.5676 179.5606 179.5578 179.5296
        179.5296 179.5069 179.4620 179.4202 179.3872 179.3608 179.3526 179.3321 179.3310 179.3173
        179.3173 179.3122 179.3100 179.3062 179.2918 179.2845 179.2712 179.2710 179.2708 179.2707
        179.2707 179.1969 179.1445 179.1443 179.1441 179.1439 179.1086 179.0494 179.0193 179.0187
        179.0105 179.0092 178.9991 178.9889 178.9715 178.9326 178.9326 178.8477 178.7628 178.7348
        178.6959 178.6780 178.6562 178.6495 178.6380 178.6322 178.6264 178.6149 178.6149 178.5410
        178.4090 178.1352 178.1066 178.0368 177.9780 177.9657 177.9375 177.9363 177.9087 177.9082
        177.8995 177.8919 177.8893 177.8782 177.8782 177.8374 177.8104 177.8055 177.8050 177.8045
        177.8041 177.7878 177.7878 177.6645 177.5797 177.5058 177.5058 177.4923 177.4745 177.4675
        177.4551 177.4349 177.4292 177.4071 177.3960 177.3909 177.3909 177.3849 177.3738 177.2469
        177.1596 177.0934 177.0429 177.0151 177.0129 176.9866 176.9821 176.9747 176.9658 176.9565
        176.9565 176.9561 176.9203 176.8559 176.7086 176.7066 176.6892 176.6808 176.6723 176.6710
        176.6649 176.6622 176.6514 176.6514 176.6068 176.5960 176.5924 176.5893 176.5801 176.5248
        176.4251 176.4100 176.4100 176.4069 176.3872 176.3667 176.3659 176.3262 176.2571 176.2567
        176.2567 176.2397 176.2247 176.2208 176.2012 176.1913 176.1738 176.1650 176.1571 176.1571
        176.1547 176.1436 176.1260 176.0711 175.9974 175.9249 175.9095 175.9095 175.8976 175.8702
        175.8494 175.8429 175.7893 175.7293 175.7293 175.7024 175.6882 175.6844 175.6649 175.6463
        175.6446 175.6030 175.6030 175.4998 175.4996 175.4994 175.4992 175.4391 175.3489 175.3214
        175.3055 175.3055 175.2941 175.2661 175.2576 175.2365 175.1918 175.1532 175.1260 175.0980
        175.0685 175.0273 175.0273 174.9750 174.9532 174.9527 174.9521 174.9515 174.9042 174.8617
        174.8453 174.8416 174.8372 174.8313 174.2959 174.2957 174.2955 174.2954 174.2319 174.2239
        174.2145 174.2043 174.2026 174.2022 174.2018 174.2015 174.0597 173.9785 173.9082 173.8216
        173.8082 173.7947 173.7943 173.7943 173.7813 173.7698 173.7452 173.7207 173.7207 173.6946
        173.6770 173.6578 173.6389 173.6380 173.5777 173.4846 173.4846 173.4292 173.3297 173.1944
        173.1866 173.1804 173.1804 173.1774 173.1675 173.1532 173.1252 173.0957 173.0957 173.0925
        173.0885 173.0831 173.0831 173.0128 172.9666 172.9050 172.9050 172.8599 172.8094 172.7100
        172.7100 172.6973 172.6709 172.6437 172.6189 172.6150 172.5651 172.5024 172.5024 172.5021
        172.5018 172.5015 172.4758 172.4554 172.4335 172.4109 172.4109 172.3877 172.3645 172.3413
        172.3413 172.2100 172.1203 172.0685 172.0422 172.0152 171.9871 171.9871 171.9868 171.9617
        171.9356 171.9081 171.9081 171.8782 171.8550 171.8423 171.8065 171.8004 171.7707 171.7452
        171.7452 171.7153 171.6841 171.6521 171.6521 171.5631 171.4800 171.3961 171.3704 171.3068
        171.2588 171.2202 171.2012 171.1903 171.1781 171.1656 171.1656 171.0744 170.9832 170.8922
        170.8911 170.8669 170.8650 170.8567 170.8466 170.8382 170.8365 170.8365 170.8099 170.7809
        170.7238 170.6661 170.6661 170.6487 170.6476 170.6318 170.6300 170.6152 170.6105 170.6105
        170.5972 170.5368 170.4854 170.4125 170.4125 170.4121 170.3951 170.3767 170.3701 170.3576
        170.3283 170.2512 170.2512 170.2219 170.1706 170.1186 170.0653 170.0303 169.8136 169.8026
        169.7412 169.6785 169.6151 169.5394 169.5394 169.5302 169.5209 169.5117 169.5117 169.4958
        169.4791 169.4610 169.4610 169.4254 169.3376 169.2281 169.2281 169.1947 169.1288 169.1254
        169.0777 169.0293 168.9796 168.9796 168.9765 168.9727 168.9676 168.9553 168.9553 168.9431
        168.9301 168.9158 168.9147 168.9076 168.8991 168.8909 168.8907 168.8905 168.8903 168.8903
        168.8899 168.7949 168.7859 168.7199 168.6981 168.6539 168.6008 168.6008 168.5880 168.3198
        168.0845 168.0720 168.0596 168.0472 167.9732 167.9327 167.9039 167.8737 167.8428 167.7507
        167.7507 167.7256 167.6791 167.6326 167.5862 167.4693 167.4322 167.3944 167.3851 167.3552
        167.0609 167.0486 167.0363 167.0334 167.0240 166.8589 166.8466 166.8335 166.8191 166.6868
        166.3366 166.3258 166.2256 166.1255 166.0255 165.9743 165.9743 165.9227 165.8894 165.8562
        165.8230 165.8002 165.7237 165.6957 165.6662 165.6362 165.5502 165.3995 165.3995 165.3751
        165.3629 165.3501 165.3359 165.2252 165.2042 165.1832 165.1623 165.1262 165.0999 165.0849
        165.0692 165.0522 164.9011 164.6585 164.6585 164.5958 164.4964 164.3877 164.3877 164.3406
        164.3286 164.3159 164.3020 164.1512 164.0958 164.0839 164.0712 164.0573 163.9988 163.9751
        163.9508 163.9252 163.8753 163.8636 163.8518 163.8401 163.7787 163.7631 163.7500 163.7463
        163.7287 163.4367 163.4367 163.4129 163.4011 163.3893 163.3776 163.3587 163.2932 163.2697
        163.2543 163.2455 163.2200 163.1946 163.1946 163.1708 163.1473 163.1427 163.1232 163.0993
        163.0977 163.0753 163.0753 163.0513 163.0431 163.0242 163.0110 162.9959 162.9788 162.9788
        162.9703 162.9668 162.9618 162.9533 162.9533 162.9293 162.9181 162.8973 162.8823 162.8652
        162.8453 162.8453 162.8332 162.8104 162.8018 162.7931 162.7844 162.7121 162.6802 162.6482
        162.6391 162.6163 162.5935 162.5382 162.4822 162.4249 162.3758 162.3188 161.9523 </array>
    </xaxis>
    <yaxis  multiplierToData="1.000000">
        <array dataType="xsd:double" units="unit:unknown">
        2.101893 2.101893 2.103183 2.103183 2.104424 2.104424 2.105568 2.023428 2.029936
        2.062438 2.063674 2.064814 2.065905 2.082156 2.083448 2.084692 2.085839 2.170344
        2.177494 2.120816 2.128324 2.121665 2.179248 2.179248 2.178582 2.177917 2.177252
        2.177252 2.175508 2.173716 2.171826 2.171826 2.172450 2.166318 2.229950 2.191451
        2.183256 2.182372 2.190814 2.347641 2.284857 2.251575 2.256116 2.279518 2.302919
        2.373074 2.379569 2.373049 2.373049 2.378892 2.380174 2.374744 2.378215 2.378215
        2.490011 2.419046 2.406907 2.406888 2.457267 2.457248 2.465686 2.474074 2.581448
        2.583030 2.593864 2.577386 2.507483 2.512683 2.519981 2.573967 2.559432 2.572216
        2.568946 2.559414 2.565628 2.559395 2.559395 2.562212 2.555155 2.550755 2.550457
        2.550446 2.542423 2.550435 2.543272 2.545655 2.548039 2.550422 2.550422 2.552156
        2.551059 2.549914 2.548672 2.553872 2.564688 2.575504 2.584942 2.582753 2.579078
        2.578198 2.577270 2.576244 2.578175 2.579036 2.582499 2.582499 2.579897 2.580757
        2.593125 2.595203 2.596799 2.594943 2.594634 2.594228 2.594211 2.595071 2.598536
        2.598536 2.595931 2.596792 2.607613 2.616642 2.625575 2.625575 2.626206 2.621874
        2.626787 2.627272 2.621619 2.625521 2.621316 2.625491 2.620917 2.625460 2.620899
        2.622410 2.627174 2.623920 2.625430 2.625430 2.648707 2.657114 2.659602 2.659602
        2.651148 2.646902 2.643226 2.643226 2.639525 2.640815 2.642056 2.643200 2.660677
        2.681819 2.699890 2.699890 2.712202 2.724466 2.736634 2.736634 2.725976 2.711325
        2.697651 2.697651 2.695040 2.698003 2.691996 2.688951 2.698258 2.685905 2.698464
        2.698464 2.687619 2.690652 2.693686 2.696719 2.758271 2.790236 2.782064 2.773968
        2.773728 2.775682 2.778218 2.780657 2.783049 2.773440 2.773055 2.773055 2.769153
        2.765250 2.754196 2.761346 2.756079 2.757866 2.759604 2.759604 2.772161 2.771912
        2.760207 2.771615 2.760762 2.771222 2.771222 2.768553 2.765786 2.762971 2.761220
        2.761220 2.752435 2.745670 2.746865 2.746848 2.746830 2.735128 2.735977 2.739653
        2.743280 2.746811 2.746811 2.749411 2.802346 2.824501 2.824040 2.834865 2.834865
        2.824028 2.824016 2.828924 2.824003 2.821885 2.805982 2.807715 2.807715 2.802943
        2.799904 2.796864 2.796847 2.799230 2.801614 2.803997 2.803997 2.807179 2.803973
        2.806546 2.803949 2.803923 2.805865 2.805865 2.798680 2.791447 2.784117 2.784117
        2.781499 2.784462 2.781857 2.782118 2.784711 2.782329 2.784912 2.784912 2.802721
        2.822513 2.848707 2.861255 2.848683 2.859504 2.856465 2.853426 2.848658 2.850386
        2.848633 2.848633 2.828757 2.809545 2.805354 2.805336 2.789083 2.805318 2.790799
        2.795714 2.800531 2.805299 2.805299 2.807033 2.826507 2.845981 2.865454 2.865454
        2.868037 2.865428 2.871055 2.874073 2.865401 2.873408 2.877092 2.871662 2.869866
        2.865374 2.865374 2.867974 2.845316 2.825161 2.817542 2.804957 2.817524 2.804940
        2.817506 2.809203 2.819232 2.813369 2.817488 2.817488 2.824621 2.827004 2.829388
        2.831771 2.851049 2.882817 2.875070 2.876803 2.878537 2.880270 2.896504 2.914488
        2.912737 2.897130 2.908601 2.904415 2.897756 2.900133 2.898382 2.898382 2.877339
        2.855748 2.845963 2.845953 2.833379 2.845941 2.833361 2.837631 2.841804 2.845929
        2.845929 2.848520 2.891082 2.912283 2.919474 2.930299 2.930299 2.919462 2.919450
        2.919437 2.899574 2.876008 2.862678 2.862678 2.859850 2.857462 2.855073 2.852683
        2.854399 2.856285 2.858074 2.859816 2.863635 2.865179 2.865975 2.865148 2.865118
        2.859671 2.861557 2.863346 2.865088 2.865088 2.868762 2.868762 2.863337 2.864573
        2.865712 2.866804 2.892771 2.916731 2.910050 2.910039 2.940594 2.940594 2.910027
        2.910014 2.916662 2.892634 2.866606 2.868557 2.868557 2.866370 2.866085 2.865703
        2.864819 2.865443 2.866019 2.866498 2.876973 2.895000 2.900588 2.900564 2.911387
        2.915071 2.908773 2.900540 2.906110 2.903351 2.900517 2.900517 2.889168 2.877722
        2.866227 2.864476 2.869893 2.869863 2.869833 2.869802 2.872386 2.881956 2.896744
        2.896744 2.898460 2.901486 2.904463 2.907344 2.896493 2.905591 2.903566 2.896194
        2.901444 2.899273 2.895797 2.895797 2.882914 2.869933 2.856903 2.856903 2.855291
        2.860792 2.870907 2.870907 2.870665 2.870375 2.869987 2.869987 2.857741 2.852156
        2.848444 2.845610 2.847752 2.849844 2.851840 2.851840 2.851816 2.851792 2.851768
        2.851768 2.848870 2.845875 2.838280 2.842830 2.843389 2.847677 2.853356 2.853356
        2.853106 2.852806 2.852410 2.852410 2.829901 2.805811 2.791126 2.791126 2.796520
        2.801160 2.809022 2.809022 2.809631 2.810192 2.810656 2.810656 2.794578 2.787582
        2.783670 2.783670 2.786897 2.790123 2.793349 2.793349 2.788796 2.778241 2.759873
        2.759873 2.762794 2.765996 2.767584 2.767584 2.752302 2.736922 2.721494 2.721494
        2.726287 2.730953 2.732972 2.732972 2.724456 2.715806 2.704866 2.704866 2.706797
        2.704583 2.706749 2.706702 2.704250 2.706654 2.703820 2.703820 2.689145 2.670540
        2.658714 2.658696 2.655862 2.659048 2.659303 2.659509 2.658332 2.662725 2.672809
        2.672809 2.672770 2.672731 2.672692 2.672692 2.665856 2.659756 2.649165 2.646545
        2.651402 2.657045 2.663511 2.663511 2.663472 2.666057 2.666042 2.663433 2.666027
        2.666012 2.663394 2.663394 2.643494 2.620160 2.642539 2.644922 2.647306 2.649689
        2.631687 2.625397 2.619107 2.612817 2.606516 2.604490 2.600215 2.602367 2.600195
        2.601036 2.624461 2.653934 2.684325 2.690589 2.690572 2.705087 2.710504 2.700957
        2.696779 2.690554 2.692503 2.690535 2.690535 2.673322 2.651279 2.641928 2.641683
        2.635607 2.641389 2.637323 2.643607 2.640998 2.640998 2.643595 2.638747 2.639699
        2.643583 2.645529 2.640103 2.641339 2.642479 2.643570 2.643570 2.681448 2.699402
        2.700638 2.701777 2.702869 2.717366 2.739000 2.749600 2.753283 2.738976 2.746712
        2.743728 2.740696 2.738952 2.738928 2.738928 2.717856 2.696784 2.695467 2.695443
        2.675712 2.695419 2.677428 2.683481 2.697137 2.689485 2.695393 2.695393 2.726825
        2.753503 2.770726 2.774392 2.764742 2.754737 2.758052 2.758035 2.744599 2.758017
        2.745448 2.749713 2.759740 2.753880 2.757998 2.757998 2.832052 2.859115 2.840733
        2.843758 2.846735 2.849616 2.864125 2.864125 2.850116 2.834589 2.818009 2.818009
        2.815401 2.811858 2.818355 2.808218 2.804530 2.818604 2.804513 2.808776 2.818805
        2.818805 2.812942 2.817060 2.865505 2.892311 2.909339 2.912202 2.911960 2.926702
        2.911669 2.924732 2.921196 2.917563 2.911281 2.911281 2.913881 2.905078 2.887060
        2.841781 2.854349 2.854338 2.842847 2.846735 2.854326 2.856273 2.850573 2.854314
        2.854314 2.880581 2.956238 2.930822 2.905517 2.981505 3.006364 3.021681 3.030556
        3.030556 3.021670 3.021657 3.021644 3.025817 3.018095 2.998171 3.000771 3.000771
        2.993112 3.001121 2.987956 2.982750 3.001372 2.982733 2.988514 3.001575 3.001575
        2.994198 2.999833 3.026151 3.063064 3.098014 3.105878 3.116703 3.116703 3.105861
        3.105843 3.107997 3.105826 3.099291 3.090585 3.090585 3.087751 3.090928 3.087515
        3.087229 3.091174 3.086847 3.091371 3.091371 3.120127 3.121363 3.122502 3.123594
        3.148412 3.175498 3.173971 3.188264 3.188264 3.173954 3.173936 3.177438 3.173917
        3.170020 3.164763 3.164745 3.164727 3.164708 3.168366 3.168366 3.187587 3.188038
        3.191714 3.195341 3.198872 3.218738 3.233053 3.251896 3.252913 3.253833 3.254704
        3.277763 3.278999 3.280138 3.281230 3.322578 3.324459 3.326243 3.327978 3.338812
        3.341195 3.343579 3.345962 3.374692 3.379551 3.381961 3.379955 3.380588 3.381174
        3.383621 3.383621 3.381662 3.391406 3.399192 3.406977 3.406977 3.403276 3.403265
        3.403252 3.404973 3.403239 3.404428 3.404873 3.404873 3.414091 3.417405 3.414652
        3.415513 3.419193 3.419193 3.416374 3.417235 3.423445 3.427600 3.431706 3.431706
        3.430557 3.429310 3.428014 3.428014 3.426138 3.425434 3.425297 3.425297 3.428622
        3.434882 3.449439 3.449439 3.445747 3.445730 3.445712 3.448866 3.445693 3.449280
        3.451036 3.451036 3.452922 3.454712 3.456453 3.452969 3.451214 3.449410 3.447509
        3.447509 3.449010 3.450512 3.452014 3.452014 3.452858 3.454693 3.457901 3.457883
        3.457865 3.456113 3.456113 3.457847 3.450181 3.444152 3.438075 3.438075 3.441739
        3.437815 3.441490 3.441194 3.437506 3.440800 3.437100 3.437100 3.434198 3.431200
        3.428153 3.428153 3.428021 3.427171 3.423431 3.421464 3.424720 3.425820 3.428731
        3.429874 3.429867 3.428703 3.425878 3.425878 3.408697 3.391517 3.374336 3.381703
        3.370852 3.382922 3.373871 3.376842 3.384044 3.379717 3.379717 3.385116 3.379182
        3.378549 3.377868 3.377868 3.380016 3.394108 3.391714 3.382114 3.389319 3.384115
        3.384115 3.386923 3.383704 3.381719 3.376830 3.376830 3.379431 3.379419 3.379407
        3.377067 3.379394 3.378892 3.383872 3.383872 3.386670 3.386635 3.386600 3.386564
        3.381002 3.373511 3.371866 3.371600 3.371284 3.370872 3.367136 3.367136 3.365115
        3.362998 3.360833 3.360833 3.360822 3.360811 3.360798 3.360798 3.350862 3.337471
        3.328351 3.328351 3.319066 3.315441 3.317445 3.318705 3.319916 3.321029 3.321029
        3.319879 3.318633 3.317337 3.314728 3.314728 3.311461 3.308146 3.304733 3.311883
        3.311011 3.310139 3.302765 3.304057 3.305301 3.306449 3.306449 3.309266 3.306752
        3.310061 3.309791 3.306958 3.309472 3.307116 3.307116 3.309058 3.296031 3.284222
        3.283988 3.283707 3.283329 3.280517 3.276965 3.276078 3.275191 3.274302 3.266003
        3.266003 3.267936 3.267029 3.266074 3.265022 3.258656 3.257763 3.256870 3.254410
        3.255976 3.240383 3.240150 3.239868 3.238093 3.239491 3.231356 3.231123 3.230841
        3.230462 3.220166 3.203744 3.207576 3.203604 3.199633 3.195661 3.191940 3.191940
        3.191037 3.189496 3.187956 3.186415 3.181599 3.180060 3.179173 3.178285 3.177397
        3.173033 3.160108 3.160108 3.161824 3.161591 3.161309 3.160929 3.154565 3.153676
        3.152738 3.151703 3.145979 3.145374 3.144272 3.143121 3.141872 3.123264 3.101932
        3.101932 3.091766 3.078058 3.070314 3.070314 3.065729 3.065496 3.065214 3.064834
        3.046691 3.047565 3.047332 3.047050 3.046670 3.040127 3.038376 3.036624 3.034872
        3.031152 3.030276 3.029401 3.028526 3.021980 3.021102 3.017745 3.020222 3.019343
        2.992908 2.992908 2.994841 2.994607 2.994326 2.993948 2.989199 2.985651 2.984767
        2.982629 2.983883 2.982997 2.974744 2.974744 2.976677 2.975784 2.973028 2.974844
        2.970789 2.973806 2.965771 2.965771 2.969437 2.964881 2.967900 2.963990 2.966363
        2.963099 2.963099 2.960926 2.964824 2.958753 2.956580 2.956580 2.960246 2.955462
        2.958705 2.954296 2.957165 2.953033 2.953033 2.955624 2.951056 2.950183 2.949310
        2.948437 2.942099 2.940558 2.939018 2.933654 2.937477 2.932910 2.931504 2.930002
        2.928450 2.925597 2.921545 2.915252 </array>
    </yaxis>
    </spectrumData>
</spectrum>
